215245-16-2
ChemmineR-0127140935XD

 31 33  0  0  0  0            999 V2000
   10.4153    1.8456    0.0000 C    0  0
    9.2190    1.7514    0.0000 C    0  0
    8.5721    0.3971    0.0000 N    0  0
    9.4244   -0.8382    0.0000 C    0  0
   10.9205   -0.7187    0.0000 C    0  0
   11.7728   -1.9540    0.0000 C    0  0
   12.4543   -2.9418    0.0000 N    0  0
    7.0761    0.2776    0.0000 C    0  0
    6.4347   -1.0784    0.0000 C    0  0
    4.9397   -1.2009    0.0000 C    0  0
    4.2991   -2.5581    0.0000 N    0  0
    5.1534   -3.7921    0.0000 C    0  0
    4.6412   -4.8773    0.0000 O    0  0
    6.3493   -3.6934    0.0000 C    0  0
    4.0896    0.0290    0.0000 C    0  0
    4.7275    1.3885    0.0000 C    0  0
    6.2225    1.5111    0.0000 C    0  0
    6.8614    2.8691    0.0000 O    0  0
    6.1771    3.8549    0.0000 C    0  0
    2.5889    0.0182    0.0000 N    0  0
    1.7138    1.2033    0.0000 N    0  0
    0.2917    0.7475    0.0000 C    0  0
   -1.0028    1.5132    0.0000 C    0  0
   -0.9991    2.7132    0.0000 Br   0  0
   -2.3155    0.7475    0.0000 C    0  0
   -2.3155   -0.7475    0.0000 C    0  0
   -3.3560   -1.3452    0.0000 N    0  0
   -1.0028   -1.5132    0.0000 C    0  0
   -0.9991   -2.7132    0.0000 Cl   0  0
    0.2917   -0.7475    0.0000 C    0  0
    1.7138   -1.2033    0.0000 N    0  0
  1  2  1  0
  2  3  1  0
  3  4  1  0
  4  5  1  0
  5  6  1  0
  6  7  3  0
  3  8  1  0
  8  9  2  0
  9 10  1  0
 10 11  1  0
 11 12  1  0
 12 13  2  0
 12 14  1  0
 10 15  2  0
 15 16  1  0
 16 17  2  0
 17  8  1  0
 17 18  1  0
 18 19  1  0
 15 20  1  0
 20 21  1  0
 21 22  2  0
 22 23  1  0
 23 24  1  0
 23 25  2  0
 25 26  1  0
 26 27  1  0
 26 28  2  0
 28 29  1  0
 28 30  1  0
 30 22  1  0
 30 31  2  0
 31 20  1  0
M  END
> <canonical_smiles>
CCN(CCC#N)c1cc(NC(=O)C)c(cc1OC)n2nc3c(Br)cc(N)c(Cl)c3n2

> <CAS_NO>
215245-16-2

> <Source>
CCRIS

> <Activity>
1

> <WDI_Name>
.

> <REFERENCE>
OHE,T, SHAUGHNESSY,DT, LANDI,S, TERAO,Y, SAWANISHI,H, NUKAYA,H,WAKABAYASHI,K AND DEMARINI,DM, MUTATION SPECTRA IN SALMONELLA TA98, TA100, ANDTA104 OF TWO PHENYLBENZOTRIAZOLE MUTAGENS (PBTA-1 AND PBTA- __ 2) DETECTED IN THENISHITAKASE RIVER IN KYOTO, JAPAN, MUTAT. RES. 429(2):189-198, 1999

> <MC_Example>
0

> <MC_Pred>
0

> <DEREK_Example>
1

> <DEREK_Pred>
0

> <Molecular_Weight>
506.78344

> <Set>
TRAIN __  __ 

$$$$
